#instrument=ARROW,
#ra=19.3925,
#dec=14.9719,
#alt=34.2972,
#az=111.433,
#tracking=true,
#startTime=1571751968,
#startTimeUTC=2019-10-22T13:46:08.139Z,
#user=atc5,
#fullScan=true,
#completeTime=1571752058,
#completeTimeUTC=2019-10-22T13:47:38.288Z,
frequency, intensity
-800000,2.012
-795000,1.982
-790000,1.973
-785000,1.953
-780000,1.943
-775000,1.924
-770000,1.924
-765000,1.924
-760000,1.921
-755000,1.924
-750000,1.909
-745000,1.934
-740000,1.943
-735000,1.941
-730000,1.929
-725000,1.924
-720000,1.912
-715000,1.895
-710000,1.914
-705000,1.931
-700000,1.921
-695000,1.943
-690000,1.943
-685000,1.956
-680000,1.951
-675000,1.943
-670000,1.943
-665000,1.934
-660000,1.936
-655000,1.943
-650000,1.951
-645000,1.973
-640000,1.956
-635000,1.953
-630000,1.96
-625000,1.973
-620000,1.963
-615000,1.956
-610000,1.951
-605000,1.953
-600000,1.963
-595000,1.951
-590000,1.97
-585000,1.963
-580000,1.982
-575000,1.985
-570000,1.98
-565000,2
-560000,1.982
-555000,1.973
-550000,1.982
-545000,1.99
-540000,1.982
-535000,1.978
-530000,1.99
-525000,2.002
-520000,2.019
-515000,2.019
-510000,2.021
-505000,2
-500000,2.002
-495000,2.012
-490000,2.029
-485000,2.031
-480000,2.051
-475000,2.053
-470000,2.068
-465000,2.07
-460000,2.07
-455000,2.061
-450000,2.056
-445000,2.051
-440000,2.058
-435000,2.041
-430000,2.051
-425000,2.063
-420000,2.07
-415000,2.043
-410000,2.041
-405000,2.061
-400000,2.073
-395000,2.07
-390000,2.07
-385000,2.08
-380000,2.078
-375000,2.078
-370000,2.1
-365000,2.104
-360000,2.112
-355000,2.119
-350000,2.097
-345000,2.117
-340000,2.129
-335000,2.168
-330000,2.139
-325000,2.156
-320000,2.168
-315000,2.175
-310000,2.173
-305000,2.185
-300000,2.178
-295000,2.188
-290000,2.19
-285000,2.197
-280000,2.217
-275000,2.244
-270000,2.251
-265000,2.246
-260000,2.278
-255000,2.314
-250000,2.312
-245000,2.314
-240000,2.314
-235000,2.324
-230000,2.332
-225000,2.312
-220000,2.334
-215000,2.38
-210000,2.383
-205000,2.383
-200000,2.393
-195000,2.383
-190000,2.371
-185000,2.393
-180000,2.393
-175000,2.41
-170000,2.41
-165000,2.432
-160000,2.422
-155000,2.419
-150000,2.422
-145000,2.441
-140000,2.454
-135000,2.458
-130000,2.441
-125000,2.456
-120000,2.461
-115000,2.5
-110000,2.488
-105000,2.512
-100000,2.534
-95000,2.549
-90000,2.524
-85000,2.52
-80000,2.524
-75000,2.542
-70000,2.578
-65000,2.634
-60000,2.683
-55000,2.734
-50000,2.793
-45000,2.842
-40000,2.871
-35000,2.891
-30000,2.874
-25000,2.878
-20000,2.847
-15000,2.8
-10000,2.744
-5000,2.686
0,2.646
5000,2.576
10000,2.517
15000,2.498
20000,2.446
25000,2.412
30000,2.373
35000,2.363
40000,2.361
45000,2.341
50000,2.354
55000,2.344
60000,2.332
65000,2.334
70000,2.302
75000,2.295
80000,2.292
85000,2.3
90000,2.29
95000,2.305
100000,2.305
105000,2.314
110000,2.305
115000,2.302
120000,2.307
125000,2.324
130000,2.324
135000,2.314
140000,2.334
145000,2.334
150000,2.354
155000,2.366
160000,2.344
165000,2.354
170000,2.371
175000,2.383
180000,2.38
185000,2.38
190000,2.383
195000,2.383
200000,2.38
205000,2.41
210000,2.422
215000,2.422
220000,2.441
225000,2.422
230000,2.444
235000,2.471
240000,2.461
245000,2.461
250000,2.468
255000,2.461
260000,2.441
265000,2.449
270000,2.444
275000,2.458
280000,2.451
285000,2.454
290000,2.466
295000,2.449
300000,2.458
305000,2.478
310000,2.449
315000,2.422
320000,2.417
325000,2.432
330000,2.439
335000,2.424
340000,2.449
345000,2.446
350000,2.49
355000,2.559
360000,2.532
365000,2.49
370000,2.478
375000,2.451
380000,2.432
385000,2.439
390000,2.444
395000,2.424
400000,2.432
405000,2.439
410000,2.429
415000,2.419
420000,2.402
425000,2.422
430000,2.412
435000,2.402
440000,2.393
445000,2.397
450000,2.412
455000,2.39
460000,2.38
465000,2.383
470000,2.393
475000,2.375
480000,2.363
485000,2.373
490000,2.344
495000,2.344
500000,2.341
505000,2.334
510000,2.332
515000,2.334
520000,2.344
525000,2.356
530000,2.371
535000,2.354
540000,2.363
545000,2.354
550000,2.334
555000,2.344
560000,2.363
565000,2.344
570000,2.354
575000,2.346
580000,2.351
585000,2.346
590000,2.344
595000,2.334
600000,2.332
605000,2.334
610000,2.332
615000,2.344
620000,2.344
625000,2.344
630000,2.383
635000,2.4
640000,2.393
645000,2.393
650000,2.395
655000,2.395
660000,2.39
665000,2.373
670000,2.402
675000,2.393
680000,2.422
685000,2.41
690000,2.402
695000,2.402
700000,2.397
705000,2.4
710000,2.393
715000,2.393
720000,2.385
725000,2.412
730000,2.405
735000,2.383
740000,2.38
745000,2.373
750000,2.38
755000,2.38
760000,2.395
765000,2.383
770000,2.41
775000,2.407
780000,2.412
785000,2.402
790000,2.412
795000,2.422
800000,2.41
805000,2.429
810000,2.441
815000,2.429
820000,2.41
825000,2.402
830000,2.412
835000,2.393
840000,2.393
845000,2.393
850000,2.41
855000,2.393
860000,2.393
865000,2.405
870000,2.412
875000,2.388
880000,2.39
885000,2.395
890000,2.402
895000,2.415
900000,2.412
905000,2.439
910000,2.451
915000,2.449
920000,2.458
925000,2.451
930000,2.449
935000,2.444
940000,2.451
945000,2.461
950000,2.432
955000,2.439
960000,2.451
965000,2.461
970000,2.478
975000,2.476
980000,2.48
985000,2.485
990000,2.488
995000,2.461
1000000,2.471
1005000,2.476
1010000,2.461
1015000,2.466
1020000,2.471
1025000,2.48
1030000,2.478
1035000,2.478
1040000,2.454
1045000,2.461
1050000,2.432
1055000,2.451
1060000,2.444
1065000,2.441
1070000,2.441
1075000,2.458
1080000,2.478
1085000,2.498
1090000,2.49
1095000,2.49
1100000,2.488
1105000,2.5
1110000,2.5
1115000,2.505
1120000,2.507
1125000,2.507
1130000,2.52
1135000,2.52
1140000,2.529
1145000,2.529
1150000,2.529
1155000,2.537
1160000,2.51
1165000,2.498
1170000,2.476
1175000,2.48
1180000,2.49
1185000,2.507
1190000,2.532
1195000,2.51
1200000,2.502