#instrument=ARROW,
#ra=19.7358,
#dec=23.7214,
#alt=38.6856,
#az=100.85,
#tracking=true,
#startTime=1571752215,
#startTimeUTC=2019-10-22T13:50:15.733Z,
#user=atc5,
#fullScan=true,
#completeTime=1571752305,
#completeTimeUTC=2019-10-22T13:51:45.756Z,
frequency, intensity
-800000,1.98
-795000,1.943
-790000,1.914
-785000,1.921
-780000,1.924
-775000,1.931
-770000,1.909
-765000,1.912
-760000,1.904
-755000,1.895
-750000,1.904
-745000,1.904
-740000,1.895
-735000,1.902
-730000,1.895
-725000,1.897
-720000,1.895
-715000,1.895
-710000,1.895
-705000,1.902
-700000,1.902
-695000,1.914
-690000,1.914
-685000,1.921
-680000,1.943
-675000,1.934
-670000,1.934
-665000,1.934
-660000,1.953
-655000,1.948
-650000,1.953
-645000,1.936
-640000,1.953
-635000,1.951
-630000,1.934
-625000,1.97
-620000,1.963
-615000,1.963
-610000,1.953
-605000,1.963
-600000,1.97
-595000,1.982
-590000,1.982
-585000,1.975
-580000,1.98
-575000,1.982
-570000,1.985
-565000,2
-560000,1.99
-555000,1.992
-550000,1.99
-545000,1.98
-540000,1.973
-535000,1.98
-530000,1.99
-525000,1.982
-520000,1.99
-515000,1.992
-510000,2.012
-505000,2.021
-500000,2.009
-495000,2.004
-490000,2.012
-485000,2.009
-480000,2.019
-475000,2.021
-470000,2.012
-465000,2.009
-460000,2.019
-455000,2.029
-450000,2.024
-445000,2.041
-440000,2.051
-435000,2.073
-430000,2.07
-425000,2.058
-420000,2.061
-415000,2.043
-410000,2.051
-405000,2.031
-400000,2.029
-395000,2.048
-390000,2.061
-385000,2.061
-380000,2.051
-375000,2.058
-370000,2.061
-365000,2.07
-360000,2.08
-355000,2.078
-350000,2.087
-345000,2.09
-340000,2.085
-335000,2.09
-330000,2.109
-325000,2.09
-320000,2.08
-315000,2.09
-310000,2.09
-305000,2.097
-300000,2.085
-295000,2.078
-290000,2.078
-285000,2.078
-280000,2.1
-275000,2.131
-270000,2.129
-265000,2.117
-260000,2.131
-255000,2.126
-250000,2.129
-245000,2.129
-240000,2.129
-235000,2.119
-230000,2.129
-225000,2.139
-220000,2.158
-215000,2.17
-210000,2.18
-205000,2.168
-200000,2.168
-195000,2.168
-190000,2.168
-185000,2.163
-180000,2.178
-175000,2.197
-170000,2.234
-165000,2.268
-160000,2.275
-155000,2.266
-150000,2.275
-145000,2.302
-140000,2.292
-135000,2.297
-130000,2.346
-125000,2.363
-120000,2.38
-115000,2.402
-110000,2.412
-105000,2.422
-100000,2.451
-95000,2.48
-90000,2.498
-85000,2.5
-80000,2.51
-75000,2.549
-70000,2.578
-65000,2.578
-60000,2.585
-55000,2.622
-50000,2.627
-45000,2.654
-40000,2.673
-35000,2.705
-30000,2.717
-25000,2.722
-20000,2.7
-15000,2.705
-10000,2.705
-5000,2.656
0,2.634
5000,2.588
10000,2.559
15000,2.52
20000,2.5
25000,2.48
30000,2.439
35000,2.402
40000,2.4
45000,2.402
50000,2.402
55000,2.41
60000,2.393
65000,2.38
70000,2.373
75000,2.346
80000,2.361
85000,2.354
90000,2.351
95000,2.358
100000,2.354
105000,2.322
110000,2.324
115000,2.314
120000,2.312
125000,2.324
130000,2.339
135000,2.336
140000,2.334
145000,2.312
150000,2.288
155000,2.31
160000,2.312
165000,2.314
170000,2.295
175000,2.295
180000,2.285
185000,2.295
190000,2.297
195000,2.322
200000,2.292
205000,2.307
210000,2.322
215000,2.327
220000,2.334
225000,2.341
230000,2.344
235000,2.354
240000,2.366
245000,2.373
250000,2.383
255000,2.366
260000,2.383
265000,2.38
270000,2.393
275000,2.393
280000,2.4
285000,2.41
290000,2.427
295000,2.449
300000,2.441
305000,2.461
310000,2.471
315000,2.48
320000,2.478
325000,2.471
330000,2.49
335000,2.517
340000,2.532
345000,2.527
350000,2.566
355000,2.617
360000,2.578
365000,2.559
370000,2.549
375000,2.507
380000,2.51
385000,2.5
390000,2.498
395000,2.498
400000,2.478
405000,2.478
410000,2.461
415000,2.471
420000,2.461
425000,2.451
430000,2.449
435000,2.451
440000,2.444
445000,2.451
450000,2.432
455000,2.405
460000,2.393
465000,2.402
470000,2.402
475000,2.419
480000,2.432
485000,2.422
490000,2.444
495000,2.461
500000,2.437
505000,2.446
510000,2.456
515000,2.449
520000,2.417
525000,2.412
530000,2.422
535000,2.419
540000,2.393
545000,2.385
550000,2.383
555000,2.363
560000,2.363
565000,2.351
570000,2.363
575000,2.344
580000,2.344
585000,2.341
590000,2.354
595000,2.329
600000,2.351
605000,2.361
610000,2.341
615000,2.341
620000,2.344
625000,2.354
630000,2.351
635000,2.354
640000,2.354
645000,2.371
650000,2.41
655000,2.38
660000,2.373
665000,2.383
670000,2.371
675000,2.38
680000,2.378
685000,2.383
690000,2.371
695000,2.383
700000,2.38
705000,2.383
710000,2.373
715000,2.383
720000,2.371
725000,2.395
730000,2.383
735000,2.373
740000,2.385
745000,2.38
750000,2.395
755000,2.383
760000,2.383
765000,2.371
770000,2.385
775000,2.393
780000,2.385
785000,2.371
790000,2.373
795000,2.38
800000,2.38
805000,2.368
810000,2.363
815000,2.378
820000,2.4
825000,2.388
830000,2.385
835000,2.4
840000,2.393
845000,2.412
850000,2.422
855000,2.383
860000,2.39
865000,2.393
870000,2.429
875000,2.422
880000,2.422
885000,2.422
890000,2.415
895000,2.437
900000,2.451
905000,2.458
910000,2.441
915000,2.429
920000,2.415
925000,2.39
930000,2.402
935000,2.412
940000,2.434
945000,2.419
950000,2.422
955000,2.441
960000,2.451
965000,2.439
970000,2.458
975000,2.468
980000,2.468
985000,2.463
990000,2.461
995000,2.461
1000000,2.451
1005000,2.434
1010000,2.449
1015000,2.476
1020000,2.471
1025000,2.48
1030000,2.471
1035000,2.488
1040000,2.48
1045000,2.49
1050000,2.49
1055000,2.461
1060000,2.463
1065000,2.471
1070000,2.5
1075000,2.49
1080000,2.5
1085000,2.498
1090000,2.51
1095000,2.49
1100000,2.495
1105000,2.488
1110000,2.488
1115000,2.49
1120000,2.478
1125000,2.471
1130000,2.458
1135000,2.451
1140000,2.468
1145000,2.444
1150000,2.461
1155000,2.476
1160000,2.471
1165000,2.461
1170000,2.441
1175000,2.461
1180000,2.458
1185000,2.471
1190000,2.49
1195000,2.49
1200000,2.5