#instrument=ARROW,
#ra=21.1892,
#dec=48.3614,
#alt=43.6139,
#az=62.8,
#tracking=true,
#startTime=1571752916,
#startTimeUTC=2019-10-22T14:01:56.318Z,
#user=atc5,
#fullScan=true,
#completeTime=1571753006,
#completeTimeUTC=2019-10-22T14:03:26.473Z,
frequency, intensity
-800000,2.031
-795000,2.012
-790000,1.992
-785000,1.975
-780000,1.965
-775000,1.973
-770000,1.963
-765000,1.953
-760000,1.953
-755000,1.953
-750000,1.973
-745000,1.98
-740000,1.99
-735000,1.982
-730000,1.98
-725000,1.992
-720000,1.992
-715000,2.002
-710000,2.009
-705000,2.012
-700000,2.012
-695000,2.009
-690000,2
-685000,1.997
-680000,2
-675000,1.997
-670000,1.973
-665000,1.992
-660000,1.992
-655000,1.992
-650000,1.995
-645000,2.007
-640000,2.012
-635000,2.012
-630000,2.031
-625000,2.031
-620000,2.051
-615000,2.061
-610000,2.061
-605000,2.051
-600000,2.051
-595000,2.046
-590000,2.031
-585000,2.029
-580000,2.021
-575000,2.041
-570000,2.058
-565000,2.061
-560000,2.053
-555000,2.058
-550000,2.051
-545000,2.041
-540000,2.053
-535000,2.048
-530000,2.08
-525000,2.09
-520000,2.09
-515000,2.08
-510000,2.08
-505000,2.08
-500000,2.09
-495000,2.1
-490000,2.102
-485000,2.107
-480000,2.1
-475000,2.1
-470000,2.1
-465000,2.09
-460000,2.097
-455000,2.1
-450000,2.122
-445000,2.109
-440000,2.109
-435000,2.126
-430000,2.122
-425000,2.124
-420000,2.134
-415000,2.166
-410000,2.156
-405000,2.129
-400000,2.129
-395000,2.119
-390000,2.126
-385000,2.141
-380000,2.158
-375000,2.156
-370000,2.168
-365000,2.175
-360000,2.166
-355000,2.175
-350000,2.168
-345000,2.168
-340000,2.158
-335000,2.148
-330000,2.146
-325000,2.148
-320000,2.136
-315000,2.141
-310000,2.148
-305000,2.148
-300000,2.148
-295000,2.156
-290000,2.178
-285000,2.185
-280000,2.19
-275000,2.188
-270000,2.195
-265000,2.188
-260000,2.188
-255000,2.185
-250000,2.188
-245000,2.207
-240000,2.207
-235000,2.2
-230000,2.188
-225000,2.214
-220000,2.197
-215000,2.207
-210000,2.212
-205000,2.207
-200000,2.207
-195000,2.188
-190000,2.217
-185000,2.217
-180000,2.197
-175000,2.207
-170000,2.227
-165000,2.227
-160000,2.236
-155000,2.236
-150000,2.227
-145000,2.224
-140000,2.227
-135000,2.224
-130000,2.244
-125000,2.236
-120000,2.234
-115000,2.236
-110000,2.241
-105000,2.256
-100000,2.266
-95000,2.246
-90000,2.251
-85000,2.266
-80000,2.266
-75000,2.295
-70000,2.273
-65000,2.266
-60000,2.275
-55000,2.305
-50000,2.295
-45000,2.305
-40000,2.312
-35000,2.324
-30000,2.351
-25000,2.351
-20000,2.373
-15000,2.39
-10000,2.434
-5000,2.458
0,2.5
5000,2.551
10000,2.637
15000,2.693
20000,2.739
25000,2.803
30000,2.852
35000,2.891
40000,2.908
45000,2.917
50000,2.935
55000,2.935
60000,2.939
65000,2.952
70000,2.964
75000,2.966
80000,2.961
85000,2.988
90000,2.979
95000,2.957
100000,2.917
105000,2.9
110000,2.888
115000,2.849
120000,2.822
125000,2.783
130000,2.754
135000,2.705
140000,2.683
145000,2.659
150000,2.625
155000,2.607
160000,2.578
165000,2.563
170000,2.556
175000,2.517
180000,2.52
185000,2.507
190000,2.493
195000,2.49
200000,2.5
205000,2.51
210000,2.498
215000,2.483
220000,2.49
225000,2.488
230000,2.473
235000,2.461
240000,2.48
245000,2.478
250000,2.48
255000,2.49
260000,2.478
265000,2.498
270000,2.485
275000,2.485
280000,2.51
285000,2.502
290000,2.49
295000,2.48
300000,2.507
305000,2.507
310000,2.502
315000,2.52
320000,2.527
325000,2.52
330000,2.495
335000,2.507
340000,2.52
345000,2.5
350000,2.566
355000,2.617
360000,2.617
365000,2.578
370000,2.559
375000,2.566
380000,2.578
385000,2.605
390000,2.588
395000,2.605
400000,2.605
405000,2.617
410000,2.637
415000,2.644
420000,2.634
425000,2.617
430000,2.607
435000,2.598
440000,2.59
445000,2.588
450000,2.563
455000,2.566
460000,2.578
465000,2.578
470000,2.568
475000,2.585
480000,2.559
485000,2.563
490000,2.559
495000,2.576
500000,2.571
505000,2.563
510000,2.559
515000,2.559
520000,2.568
525000,2.559
530000,2.551
535000,2.539
540000,2.527
545000,2.52
550000,2.507
555000,2.517
560000,2.517
565000,2.5
570000,2.524
575000,2.52
580000,2.52
585000,2.52
590000,2.505
595000,2.507
600000,2.51
605000,2.5
610000,2.49
615000,2.495
620000,2.48
625000,2.471
630000,2.461
635000,2.461
640000,2.471
645000,2.48
650000,2.488
655000,2.483
660000,2.483
665000,2.478
670000,2.505
675000,2.49
680000,2.49
685000,2.507
690000,2.507
695000,2.49
700000,2.48
705000,2.48
710000,2.5
715000,2.505
720000,2.488
725000,2.478
730000,2.471
735000,2.463
740000,2.471
745000,2.471
750000,2.473
755000,2.48
760000,2.49
765000,2.507
770000,2.51
775000,2.5
780000,2.49
785000,2.466
790000,2.471
795000,2.5
800000,2.49
805000,2.507
810000,2.498
815000,2.502
820000,2.49
825000,2.478
830000,2.498
835000,2.493
840000,2.49
845000,2.49
850000,2.48
855000,2.48
860000,2.5
865000,2.512
870000,2.52
875000,2.5
880000,2.493
885000,2.5
890000,2.537
895000,2.556
900000,2.571
905000,2.554
910000,2.566
915000,2.559
920000,2.566
925000,2.568
930000,2.563
935000,2.549
940000,2.559
945000,2.568
950000,2.544
955000,2.529
960000,2.52
965000,2.524
970000,2.515
975000,2.529
980000,2.529
985000,2.549
990000,2.561
995000,2.576
1000000,2.568
1005000,2.578
1010000,2.59
1015000,2.588
1020000,2.566
1025000,2.576
1030000,2.559
1035000,2.559
1040000,2.566
1045000,2.556
1050000,2.563
1055000,2.544
1060000,2.563
1065000,2.559
1070000,2.544
1075000,2.561
1080000,2.549
1085000,2.566
1090000,2.566
1095000,2.563
1100000,2.549
1105000,2.556
1110000,2.546
1115000,2.559
1120000,2.578
1125000,2.546
1130000,2.539
1135000,2.559
1140000,2.566
1145000,2.566
1150000,2.568
1155000,2.578
1160000,2.578
1165000,2.578
1170000,2.617
1175000,2.603
1180000,2.598
1185000,2.603
1190000,2.595
1195000,2.593
1200000,2.583