#instrument=ARROW,
#ra=12.8553,
#dec=27.2194,
#alt=38.7833,
#az=265.65,
#tracking=true,
#startTime=1571755708,
#startTimeUTC=2019-10-22T14:48:28.272Z,
#user=atc5,
#fullScan=true,
#completeTime=1571755798,
#completeTimeUTC=2019-10-22T14:49:58.396Z,
frequency, intensity
-800000,1.982
-795000,1.943
-790000,1.936
-785000,1.934
-780000,1.934
-775000,1.931
-770000,1.924
-765000,1.914
-760000,1.919
-755000,1.919
-750000,1.912
-745000,1.914
-740000,1.941
-735000,1.953
-730000,1.934
-725000,1.921
-720000,1.936
-715000,1.941
-710000,1.963
-705000,1.968
-700000,1.965
-695000,1.953
-690000,1.963
-685000,1.973
-680000,1.97
-675000,1.97
-670000,1.963
-665000,1.97
-660000,1.943
-655000,1.953
-650000,1.958
-645000,1.946
-640000,1.951
-635000,1.948
-630000,1.956
-625000,1.982
-620000,1.98
-615000,1.975
-610000,1.99
-605000,1.992
-600000,2
-595000,1.992
-590000,1.985
-585000,2
-580000,1.99
-575000,1.982
-570000,2.012
-565000,2.007
-560000,2.009
-555000,2.009
-550000,2.009
-545000,2.009
-540000,2.019
-535000,2.002
-530000,2
-525000,2.004
-520000,2.009
-515000,2.019
-510000,2.021
-505000,2.009
-500000,2.021
-495000,2.012
-490000,2.012
-485000,2.031
-480000,2.048
-475000,2.046
-470000,2.058
-465000,2.058
-460000,2.041
-455000,2.061
-450000,2.061
-445000,2.041
-440000,2.031
-435000,2.046
-430000,2.048
-425000,2.051
-420000,2.068
-415000,2.073
-410000,2.068
-405000,2.07
-400000,2.07
-395000,2.078
-390000,2.087
-385000,2.09
-380000,2.109
-375000,2.107
-370000,2.1
-365000,2.09
-360000,2.061
-355000,2.078
-350000,2.09
-345000,2.107
-340000,2.09
-335000,2.109
-330000,2.117
-325000,2.112
-320000,2.114
-315000,2.136
-310000,2.129
-305000,2.129
-300000,2.129
-295000,2.129
-290000,2.146
-285000,2.156
-280000,2.148
-275000,2.148
-270000,2.146
-265000,2.129
-260000,2.148
-255000,2.136
-250000,2.146
-245000,2.156
-240000,2.136
-235000,2.139
-230000,2.148
-225000,2.156
-220000,2.168
-215000,2.158
-210000,2.158
-205000,2.158
-200000,2.168
-195000,2.158
-190000,2.158
-185000,2.153
-180000,2.146
-175000,2.148
-170000,2.153
-165000,2.156
-160000,2.161
-155000,2.166
-150000,2.166
-145000,2.166
-140000,2.168
-135000,2.178
-130000,2.166
-125000,2.166
-120000,2.175
-115000,2.197
-110000,2.188
-105000,2.197
-100000,2.207
-95000,2.195
-90000,2.2
-85000,2.236
-80000,2.239
-75000,2.227
-70000,2.236
-65000,2.246
-60000,2.253
-55000,2.241
-50000,2.246
-45000,2.253
-40000,2.236
-35000,2.236
-30000,2.236
-25000,2.236
-20000,2.241
-15000,2.234
-10000,2.224
-5000,2.244
0,2.236
5000,2.227
10000,2.212
15000,2.236
20000,2.236
25000,2.224
30000,2.227
35000,2.236
40000,2.263
45000,2.273
50000,2.275
55000,2.263
60000,2.256
65000,2.256
70000,2.246
75000,2.249
80000,2.268
85000,2.278
90000,2.266
95000,2.285
100000,2.295
105000,2.285
110000,2.305
115000,2.275
120000,2.285
125000,2.28
130000,2.275
135000,2.278
140000,2.285
145000,2.297
150000,2.292
155000,2.295
160000,2.314
165000,2.302
170000,2.305
175000,2.3
180000,2.295
185000,2.285
190000,2.302
195000,2.3
200000,2.305
205000,2.329
210000,2.305
215000,2.305
220000,2.292
225000,2.314
230000,2.322
235000,2.31
240000,2.3
245000,2.283
250000,2.275
255000,2.285
260000,2.285
265000,2.292
270000,2.285
275000,2.29
280000,2.31
285000,2.268
290000,2.273
295000,2.292
300000,2.29
305000,2.295
310000,2.305
315000,2.302
320000,2.305
325000,2.334
330000,2.344
335000,2.356
340000,2.383
345000,2.395
350000,2.422
355000,2.444
360000,2.424
365000,2.4
370000,2.39
375000,2.383
380000,2.383
385000,2.373
390000,2.363
395000,2.363
400000,2.344
405000,2.334
410000,2.334
415000,2.317
420000,2.314
425000,2.324
430000,2.344
435000,2.344
440000,2.344
445000,2.344
450000,2.334
455000,2.332
460000,2.314
465000,2.332
470000,2.334
475000,2.344
480000,2.363
485000,2.356
490000,2.368
495000,2.351
500000,2.361
505000,2.361
510000,2.363
515000,2.341
520000,2.361
525000,2.361
530000,2.373
535000,2.383
540000,2.39
545000,2.38
550000,2.375
555000,2.383
560000,2.373
565000,2.383
570000,2.39
575000,2.39
580000,2.383
585000,2.366
590000,2.39
595000,2.383
600000,2.363
605000,2.39
610000,2.393
615000,2.402
620000,2.393
625000,2.39
630000,2.375
635000,2.371
640000,2.373
645000,2.371
650000,2.38
655000,2.378
660000,2.4
665000,2.393
670000,2.375
675000,2.371
680000,2.363
685000,2.393
690000,2.383
695000,2.38
700000,2.38
705000,2.383
710000,2.383
715000,2.366
720000,2.393
725000,2.371
730000,2.373
735000,2.373
740000,2.383
745000,2.402
750000,2.407
755000,2.393
760000,2.393
765000,2.407
770000,2.412
775000,2.415
780000,2.395
785000,2.395
790000,2.412
795000,2.41
800000,2.412
805000,2.39
810000,2.4
815000,2.417
820000,2.412
825000,2.393
830000,2.412
835000,2.41
840000,2.402
845000,2.395
850000,2.402
855000,2.422
860000,2.429
865000,2.441
870000,2.458
875000,2.461
880000,2.471
885000,2.449
890000,2.451
895000,2.449
900000,2.458
905000,2.478
910000,2.48
915000,2.48
920000,2.471
925000,2.476
930000,2.488
935000,2.49
940000,2.468
945000,2.466
950000,2.488
955000,2.478
960000,2.471
965000,2.468
970000,2.49
975000,2.498
980000,2.49
985000,2.49
990000,2.498
995000,2.5
1000000,2.471
1005000,2.49
1010000,2.49
1015000,2.49
1020000,2.458
1025000,2.471
1030000,2.478
1035000,2.471
1040000,2.471
1045000,2.471
1050000,2.48
1055000,2.468
1060000,2.478
1065000,2.471
1070000,2.476
1075000,2.454
1080000,2.456
1085000,2.451
1090000,2.463
1095000,2.473
1100000,2.5
1105000,2.5
1110000,2.507
1115000,2.49
1120000,2.498
1125000,2.478
1130000,2.5
1135000,2.507
1140000,2.49
1145000,2.495
1150000,2.498
1155000,2.49
1160000,2.49
1165000,2.5
1170000,2.498
1175000,2.517
1180000,2.546
1185000,2.527
1190000,2.542
1195000,2.539
1200000,2.527