#instrument=ARROW,
#ra=12.8553,
#dec=27.2197,
#alt=38.5042,
#az=266.033,
#tracking=true,
#startTime=1571755817,
#startTimeUTC=2019-10-22T14:50:17.229Z,
#user=atc5,
#fullScan=true,
#completeTime=1571755907,
#completeTimeUTC=2019-10-22T14:51:47.413Z,
frequency, intensity
-800000,1.992
-795000,1.997
-790000,1.963
-785000,1.963
-780000,1.958
-775000,1.953
-770000,1.941
-765000,1.934
-760000,1.934
-755000,1.931
-750000,1.924
-745000,1.914
-740000,1.924
-735000,1.929
-730000,1.934
-725000,1.926
-720000,1.943
-715000,1.934
-710000,1.953
-705000,1.953
-700000,1.941
-695000,1.934
-690000,1.943
-685000,1.936
-680000,1.924
-675000,1.941
-670000,1.951
-665000,1.943
-660000,1.953
-655000,1.96
-650000,1.963
-645000,1.973
-640000,1.99
-635000,1.982
-630000,1.973
-625000,1.973
-620000,1.973
-615000,1.973
-610000,2
-605000,2
-600000,1.985
-595000,1.98
-590000,1.987
-585000,1.985
-580000,1.992
-575000,2.002
-570000,2.002
-565000,1.992
-560000,2.002
-555000,2.019
-550000,2.021
-545000,2.031
-540000,2.031
-535000,2.019
-530000,2.019
-525000,2
-520000,2.004
-515000,2.002
-510000,2.004
-505000,2.019
-500000,2.031
-495000,2.029
-490000,2.019
-485000,2.019
-480000,2.021
-475000,2.021
-470000,2.021
-465000,2.029
-460000,2.017
-455000,2.034
-450000,2.031
-445000,2.051
-440000,2.061
-435000,2.048
-430000,2.039
-425000,2.039
-420000,2.051
-415000,2.051
-410000,2.07
-405000,2.061
-400000,2.068
-395000,2.051
-390000,2.053
-385000,2.061
-380000,2.061
-375000,2.07
-370000,2.07
-365000,2.068
-360000,2.065
-355000,2.061
-350000,2.08
-345000,2.09
-340000,2.1
-335000,2.09
-330000,2.08
-325000,2.09
-320000,2.07
-315000,2.095
-310000,2.09
-305000,2.09
-300000,2.092
-295000,2.119
-290000,2.107
-285000,2.104
-280000,2.1
-275000,2.107
-270000,2.109
-265000,2.129
-260000,2.136
-255000,2.148
-250000,2.129
-245000,2.139
-240000,2.156
-235000,2.153
-230000,2.148
-225000,2.129
-220000,2.129
-215000,2.144
-210000,2.153
-205000,2.139
-200000,2.156
-195000,2.153
-190000,2.146
-185000,2.148
-180000,2.148
-175000,2.158
-170000,2.168
-165000,2.173
-160000,2.168
-155000,2.148
-150000,2.148
-145000,2.173
-140000,2.158
-135000,2.161
-130000,2.156
-125000,2.173
-120000,2.195
-115000,2.188
-110000,2.188
-105000,2.197
-100000,2.207
-95000,2.19
-90000,2.195
-85000,2.195
-80000,2.188
-75000,2.188
-70000,2.192
-65000,2.209
-60000,2.222
-55000,2.227
-50000,2.241
-45000,2.236
-40000,2.253
-35000,2.256
-30000,2.266
-25000,2.251
-20000,2.256
-15000,2.246
-10000,2.246
-5000,2.236
0,2.246
5000,2.246
10000,2.256
15000,2.273
20000,2.295
25000,2.285
30000,2.285
35000,2.285
40000,2.285
45000,2.283
50000,2.273
55000,2.275
60000,2.275
65000,2.266
70000,2.256
75000,2.266
80000,2.256
85000,2.266
90000,2.263
95000,2.263
100000,2.271
105000,2.283
110000,2.283
115000,2.285
120000,2.275
125000,2.29
130000,2.305
135000,2.285
140000,2.275
145000,2.266
150000,2.285
155000,2.285
160000,2.275
165000,2.285
170000,2.292
175000,2.295
180000,2.314
185000,2.314
190000,2.312
195000,2.305
200000,2.305
205000,2.302
210000,2.314
215000,2.317
220000,2.307
225000,2.307
230000,2.305
235000,2.307
240000,2.305
245000,2.305
250000,2.283
255000,2.283
260000,2.285
265000,2.307
270000,2.285
275000,2.305
280000,2.317
285000,2.302
290000,2.305
295000,2.305
300000,2.3
305000,2.314
310000,2.324
315000,2.322
320000,2.322
325000,2.334
330000,2.336
335000,2.344
340000,2.356
345000,2.341
350000,2.373
355000,2.437
360000,2.422
365000,2.402
370000,2.38
375000,2.341
380000,2.332
385000,2.341
390000,2.332
395000,2.327
400000,2.317
405000,2.305
410000,2.297
415000,2.324
420000,2.302
425000,2.324
430000,2.346
435000,2.351
440000,2.344
445000,2.332
450000,2.324
455000,2.312
460000,2.332
465000,2.334
470000,2.341
475000,2.324
480000,2.324
485000,2.317
490000,2.312
495000,2.334
500000,2.368
505000,2.38
510000,2.354
515000,2.334
520000,2.354
525000,2.354
530000,2.363
535000,2.371
540000,2.366
545000,2.361
550000,2.354
555000,2.341
560000,2.334
565000,2.344
570000,2.354
575000,2.354
580000,2.363
585000,2.351
590000,2.366
595000,2.38
600000,2.39
605000,2.39
610000,2.378
615000,2.383
620000,2.383
625000,2.393
630000,2.39
635000,2.373
640000,2.373
645000,2.373
650000,2.344
655000,2.373
660000,2.363
665000,2.395
670000,2.38
675000,2.371
680000,2.363
685000,2.38
690000,2.383
695000,2.383
700000,2.373
705000,2.38
710000,2.383
715000,2.383
720000,2.4
725000,2.393
730000,2.393
735000,2.383
740000,2.363
745000,2.361
750000,2.346
755000,2.383
760000,2.393
765000,2.402
770000,2.422
775000,2.422
780000,2.422
785000,2.437
790000,2.422
795000,2.429
800000,2.412
805000,2.402
810000,2.432
815000,2.449
820000,2.451
825000,2.441
830000,2.429
835000,2.446
840000,2.439
845000,2.441
850000,2.432
855000,2.437
860000,2.449
865000,2.461
870000,2.451
875000,2.441
880000,2.437
885000,2.429
890000,2.429
895000,2.429
900000,2.446
905000,2.422
910000,2.432
915000,2.449
920000,2.449
925000,2.468
930000,2.461
935000,2.471
940000,2.49
945000,2.5
950000,2.49
955000,2.478
960000,2.493
965000,2.48
970000,2.49
975000,2.49
980000,2.485
985000,2.48
990000,2.471
995000,2.471
1000000,2.463
1005000,2.461
1010000,2.471
1015000,2.449
1020000,2.441
1025000,2.471
1030000,2.468
1035000,2.461
1040000,2.476
1045000,2.468
1050000,2.48
1055000,2.488
1060000,2.5
1065000,2.52
1070000,2.51
1075000,2.51
1080000,2.51
1085000,2.49
1090000,2.488
1095000,2.49
1100000,2.49
1105000,2.498
1110000,2.52
1115000,2.517
1120000,2.495
1125000,2.48
1130000,2.502
1135000,2.52
1140000,2.529
1145000,2.539
1150000,2.529
1155000,2.517
1160000,2.529
1165000,2.527
1170000,2.539
1175000,2.559
1180000,2.556
1185000,2.559
1190000,2.561
1195000,2.549
1200000,2.534